Labels,AD2,
Type,Time Scan,
Comment,,
Start,0.00,
Stop,1998.046900,
Step,1.9531250,
Fixed/Offset, ,
XAxis,Time(ns),
YAxis,Counts (a.u.),

0.00,0.00000000E+0,
1.9531250,0.00000000E+0,
3.906250,0.00000000E+0,
5.8593750,0.00000000E+0,
7.81250,0.00000000E+0,
9.7656250,0.00000000E+0,
11.718750,0.00000000E+0,
13.671875,0.00000000E+0,
15.6250,0.00000000E+0,
17.578125,0.00000000E+0,
19.531250,0.00000000E+0,
21.484375,0.00000000E+0,
23.43750,0.00000000E+0,
25.390625,0.00000000E+0,
27.343750,0.00000000E+0,
29.296875,0.00000000E+0,
31.250,0.00000000E+0,
33.203125,0.00000000E+0,
35.156250,0.00000000E+0,
37.109375,0.00000000E+0,
39.06250,0.00000000E+0,
41.015625,4.00000000E+0,
42.968750,1.00000000E+1,
44.921875,6.00000000E+0,
46.8750,5.00000000E+0,
48.828125,7.00000000E+0,
50.781250,5.00000000E+0,
52.734375,5.00000000E+0,
54.68750,6.00000000E+0,
56.640625,6.00000000E+0,
58.593750,5.00000000E+0,
60.546875,4.00000000E+0,
62.50,4.00000000E+0,
64.453125,3.00000000E+0,
66.406250,3.00000000E+0,
68.359375,5.00000000E+0,
70.31250,3.00000000E+0,
72.265625,1.20000000E+1,
74.218750,2.80000000E+1,
76.171875,3.30000000E+1,
78.1250,3.30000000E+1,
80.078125,3.60000000E+1,
82.031250,3.00000000E+1,
83.984375,2.50000000E+1,
85.93750,3.20000000E+1,
87.890625,2.10000000E+1,
89.843750,2.50000000E+1,
91.796875,2.30000000E+1,
93.750,2.90000000E+1,
95.703125,2.40000000E+1,
97.656250,1.90000000E+1,
99.609375,1.60000000E+1,
101.562500,1.20000000E+1,
103.515630,9.00000000E+0,
105.468750,9.00000000E+0,
107.421880,1.90000000E+1,
109.37500,1.70000000E+1,
111.328130,8.00000000E+0,
113.281250,1.80000000E+1,
115.234380,1.50000000E+1,
117.187500,1.30000000E+1,
119.140630,1.00000000E+1,
121.093750,8.00000000E+0,
123.046880,9.00000000E+0,
125.00,1.10000000E+1,
126.953130,1.00000000E+1,
128.906250,1.60000000E+1,
130.859380,8.00000000E+0,
132.812500,7.00000000E+0,
134.765630,1.20000000E+1,
136.718750,1.30000000E+1,
138.671880,1.50000000E+1,
140.62500,1.00000000E+1,
142.578130,1.00000000E+1,
144.531250,1.20000000E+1,
146.484380,8.00000000E+0,
148.437500,1.10000000E+1,
150.390630,9.00000000E+0,
152.343750,1.50000000E+1,
154.296880,5.00000000E+0,
156.2500,8.00000000E+0,
158.203130,1.10000000E+1,
160.156250,5.00000000E+0,
162.109380,4.00000000E+0,
164.062500,8.00000000E+0,
166.015630,1.00000000E+1,
167.968750,2.00000000E+0,
169.921880,5.00000000E+0,
171.87500,8.00000000E+0,
173.828130,7.00000000E+0,
175.781250,9.00000000E+0,
177.734380,1.40000000E+1,
179.687500,1.50000000E+1,
181.640630,9.00000000E+0,
183.593750,6.00000000E+0,
185.546880,7.00000000E+0,
187.500,8.00000000E+0,
189.453130,8.00000000E+0,
191.406250,1.20000000E+1,
193.359380,5.00000000E+0,
195.312500,6.00000000E+0,
197.265630,1.00000000E+1,
199.218750,6.00000000E+0,
201.171880,9.00000000E+0,
203.12500,1.50000000E+1,
205.078130,4.00000000E+0,
207.031250,5.00000000E+0,
208.984380,8.00000000E+0,
210.937500,1.10000000E+1,
212.890630,1.00000000E+1,
214.843750,6.00000000E+0,
216.796880,6.00000000E+0,
218.7500,6.00000000E+0,
220.703130,1.20000000E+1,
222.656250,3.00000000E+0,
224.609380,4.00000000E+0,
226.562500,5.00000000E+0,
228.515630,5.00000000E+0,
230.468750,4.00000000E+0,
232.421880,1.00000000E+1,
234.37500,5.00000000E+0,
236.328130,7.00000000E+0,
238.281250,5.00000000E+0,
240.234380,2.00000000E+0,
242.187500,3.00000000E+0,
244.140630,7.00000000E+0,
246.093750,5.00000000E+0,
248.046880,9.00000000E+0,
250.00,6.00000000E+0,
251.953130,8.00000000E+0,
253.906250,8.00000000E+0,
255.859380,5.00000000E+0,
257.812500,6.00000000E+0,
259.765630,3.00000000E+0,
261.718750,5.00000000E+0,
263.671880,8.00000000E+0,
265.62500,8.00000000E+0,
267.578130,7.00000000E+0,
269.531250,7.00000000E+0,
271.484380,9.00000000E+0,
273.437500,2.00000000E+0,
275.390630,4.00000000E+0,
277.343750,6.00000000E+0,
279.296880,2.00000000E+0,
281.2500,5.00000000E+0,
283.203130,6.00000000E+0,
285.156250,8.00000000E+0,
287.109380,6.00000000E+0,
289.062500,8.00000000E+0,
291.015630,9.00000000E+0,
292.968750,6.00000000E+0,
294.921880,7.00000000E+0,
296.87500,2.00000000E+0,
298.828130,8.00000000E+0,
300.781250,3.00000000E+0,
302.734380,6.00000000E+0,
304.687500,7.00000000E+0,
306.640630,5.00000000E+0,
308.593750,3.00000000E+0,
310.546880,4.00000000E+0,
312.500,9.00000000E+0,
314.453130,7.00000000E+0,
316.406250,7.00000000E+0,
318.359380,3.00000000E+0,
320.312500,5.00000000E+0,
322.265630,5.00000000E+0,
324.218750,2.00000000E+0,
326.171880,3.00000000E+0,
328.12500,7.00000000E+0,
330.078130,6.00000000E+0,
332.031250,4.00000000E+0,
333.984380,4.00000000E+0,
335.937500,3.00000000E+0,
337.890630,6.00000000E+0,
339.843750,9.00000000E+0,
341.796880,5.00000000E+0,
343.7500,3.00000000E+0,
345.703130,5.00000000E+0,
347.656250,4.00000000E+0,
349.609380,1.10000000E+1,
351.562500,2.00000000E+0,
353.515630,8.00000000E+0,
355.468750,5.00000000E+0,
357.421880,7.00000000E+0,
359.37500,5.00000000E+0,
361.328130,6.00000000E+0,
363.281250,3.00000000E+0,
365.234380,6.00000000E+0,
367.187500,6.00000000E+0,
369.140630,7.00000000E+0,
371.093750,5.00000000E+0,
373.046880,7.00000000E+0,
375.00,2.00000000E+0,
376.953130,6.00000000E+0,
378.906250,1.00000000E+0,
380.859380,7.00000000E+0,
382.812500,7.00000000E+0,
384.765630,3.00000000E+0,
386.718750,1.00000000E+1,
388.671880,2.00000000E+0,
390.62500,1.00000000E+1,
392.578130,7.00000000E+0,
394.531250,3.00000000E+0,
396.484380,1.00000000E+0,
398.437500,6.00000000E+0,
400.390630,7.00000000E+0,
402.343750,4.00000000E+0,
404.296880,1.00000000E+1,
406.2500,8.00000000E+0,
408.203130,7.00000000E+0,
410.156250,5.00000000E+0,
412.109380,4.00000000E+0,
414.062500,5.00000000E+0,
416.015630,5.00000000E+0,
417.968750,1.00000000E+0,
419.921880,5.00000000E+0,
421.87500,9.00000000E+0,
423.828130,3.00000000E+0,
425.781250,4.00000000E+0,
427.734380,4.00000000E+0,
429.687500,6.00000000E+0,
431.640630,1.00000000E+1,
433.593750,7.00000000E+0,
435.546880,1.00000000E+0,
437.500,7.00000000E+0,
439.453130,1.00000000E+1,
441.406250,7.00000000E+0,
443.359380,5.00000000E+0,
445.312500,7.00000000E+0,
447.265630,8.00000000E+0,
449.218750,4.00000000E+0,
451.171880,6.00000000E+0,
453.12500,3.00000000E+0,
455.078130,4.00000000E+0,
457.031250,6.00000000E+0,
458.984380,4.00000000E+0,
460.937500,5.00000000E+0,
462.890630,6.00000000E+0,
464.843750,7.00000000E+0,
466.796880,6.00000000E+0,
468.7500,7.00000000E+0,
470.703130,7.00000000E+0,
472.656250,6.00000000E+0,
474.609380,6.00000000E+0,
476.562500,5.00000000E+0,
478.515630,5.00000000E+0,
480.468750,5.00000000E+0,
482.421880,5.00000000E+0,
484.37500,5.00000000E+0,
486.328130,4.00000000E+0,
488.281250,2.00000000E+0,
490.234380,6.00000000E+0,
492.187500,1.00000000E+0,
494.140630,5.00000000E+0,
496.093750,4.00000000E+0,
498.046880,5.00000000E+0,
500.00,4.00000000E+0,
501.953130,4.00000000E+0,
503.906250,6.00000000E+0,
505.859380,6.00000000E+0,
507.812500,9.00000000E+0,
509.765630,6.00000000E+0,
511.718750,4.00000000E+0,
513.671880,9.00000000E+0,
515.62500,2.00000000E+0,
517.578130,3.00000000E+0,
519.531250,7.00000000E+0,
521.484380,9.00000000E+0,
523.437500,6.00000000E+0,
525.390630,6.00000000E+0,
527.343750,1.00000000E+0,
529.296880,3.00000000E+0,
531.2500,4.00000000E+0,
533.203130,4.00000000E+0,
535.156250,5.00000000E+0,
537.109380,8.00000000E+0,
539.062500,1.00000000E+0,
541.015630,6.00000000E+0,
542.968750,4.00000000E+0,
544.921880,7.00000000E+0,
546.87500,3.00000000E+0,
548.828130,5.00000000E+0,
550.781250,4.00000000E+0,
552.734380,6.00000000E+0,
554.687500,7.00000000E+0,
556.640630,3.00000000E+0,
558.593750,2.00000000E+0,
560.546880,6.00000000E+0,
562.500,9.00000000E+0,
564.453130,3.00000000E+0,
566.406250,1.00000000E+1,
568.359380,6.00000000E+0,
570.312500,4.00000000E+0,
572.265630,2.00000000E+0,
574.218750,1.10000000E+1,
576.171880,3.00000000E+0,
578.12500,3.00000000E+0,
580.078130,9.00000000E+0,
582.031250,6.00000000E+0,
583.984380,5.00000000E+0,
585.937500,3.00000000E+0,
587.890630,6.00000000E+0,
589.843750,3.00000000E+0,
591.796880,7.00000000E+0,
593.7500,4.00000000E+0,
595.703130,3.00000000E+0,
597.656250,7.00000000E+0,
599.609380,9.00000000E+0,
601.562500,8.00000000E+0,
603.515630,1.00000000E+1,
605.468750,0.00000000E+0,
607.421880,5.00000000E+0,
609.37500,3.00000000E+0,
611.328130,1.00000000E+1,
613.281250,1.00000000E+1,
615.234380,3.00000000E+0,
617.187500,5.00000000E+0,
619.140630,5.00000000E+0,
621.093750,4.00000000E+0,
623.046880,5.00000000E+0,
625.00,3.00000000E+0,
626.953130,4.00000000E+0,
628.906250,7.00000000E+0,
630.859380,4.00000000E+0,
632.812500,7.00000000E+0,
634.765630,4.00000000E+0,
636.718750,6.00000000E+0,
638.671880,4.00000000E+0,
640.62500,3.00000000E+0,
642.578130,4.00000000E+0,
644.531250,9.00000000E+0,
646.484380,2.00000000E+0,
648.437500,3.00000000E+0,
650.390630,4.00000000E+0,
652.343750,2.00000000E+0,
654.296880,0.00000000E+0,
656.2500,7.00000000E+0,
658.203130,7.00000000E+0,
660.156250,5.00000000E+0,
662.109380,4.00000000E+0,
664.062500,8.00000000E+0,
666.015630,4.00000000E+0,
667.968750,3.00000000E+0,
669.921880,4.00000000E+0,
671.87500,5.00000000E+0,
673.828130,4.00000000E+0,
675.781250,3.00000000E+0,
677.734380,4.00000000E+0,
679.687500,5.00000000E+0,
681.640630,1.00000000E+1,
683.593750,6.00000000E+0,
685.546880,4.00000000E+0,
687.500,4.00000000E+0,
689.453130,3.00000000E+0,
691.406250,5.00000000E+0,
693.359380,5.00000000E+0,
695.312500,6.00000000E+0,
697.265630,5.00000000E+0,
699.218750,6.00000000E+0,
701.171880,4.00000000E+0,
703.12500,7.00000000E+0,
705.078130,7.00000000E+0,
707.031250,5.00000000E+0,
708.984380,8.00000000E+0,
710.937500,6.00000000E+0,
712.890630,6.00000000E+0,
714.843750,5.00000000E+0,
716.796880,8.00000000E+0,
718.7500,4.00000000E+0,
720.703130,6.00000000E+0,
722.656250,3.00000000E+0,
724.609380,6.00000000E+0,
726.562500,4.00000000E+0,
728.515630,6.00000000E+0,
730.468750,5.00000000E+0,
732.421880,7.00000000E+0,
734.37500,4.00000000E+0,
736.328130,8.00000000E+0,
738.281250,4.00000000E+0,
740.234380,6.00000000E+0,
742.187500,1.00000000E+1,
744.140630,5.00000000E+0,
746.093750,5.00000000E+0,
748.046880,7.00000000E+0,
750.00,4.00000000E+0,
751.953130,7.00000000E+0,
753.906250,7.00000000E+0,
755.859380,6.00000000E+0,
757.812500,8.00000000E+0,
759.765630,5.00000000E+0,
761.718750,8.00000000E+0,
763.671880,8.00000000E+0,
765.62500,5.00000000E+0,
767.578130,3.00000000E+0,
769.531250,4.00000000E+0,
771.484380,7.00000000E+0,
773.437500,8.00000000E+0,
775.390630,4.00000000E+0,
777.343750,2.00000000E+0,
779.296880,6.00000000E+0,
781.2500,5.00000000E+0,
783.203130,5.00000000E+0,
785.156250,3.00000000E+0,
787.109380,2.00000000E+0,
789.062500,2.00000000E+0,
791.015630,5.00000000E+0,
792.968750,5.00000000E+0,
794.921880,6.00000000E+0,
796.87500,5.00000000E+0,
798.828130,7.00000000E+0,
800.781250,5.00000000E+0,
802.734380,3.00000000E+0,
804.687500,8.00000000E+0,
806.640630,8.00000000E+0,
808.593750,9.00000000E+0,
810.546880,9.00000000E+0,
812.500,5.00000000E+0,
814.453130,9.00000000E+0,
816.406250,9.00000000E+0,
818.359380,6.00000000E+0,
820.312500,9.00000000E+0,
822.265630,6.00000000E+0,
824.218750,5.00000000E+0,
826.171880,3.00000000E+0,
828.12500,4.00000000E+0,
830.078130,3.00000000E+0,
832.031250,7.00000000E+0,
833.984380,3.00000000E+0,
835.937500,3.00000000E+0,
837.890630,1.10000000E+1,
839.843750,1.10000000E+1,
841.796880,4.00000000E+0,
843.7500,7.00000000E+0,
845.703130,6.00000000E+0,
847.656250,8.00000000E+0,
849.609380,5.00000000E+0,
851.562500,5.00000000E+0,
853.515630,4.00000000E+0,
855.468750,3.00000000E+0,
857.421880,8.00000000E+0,
859.37500,2.00000000E+0,
861.328130,3.00000000E+0,
863.281250,5.00000000E+0,
865.234380,5.00000000E+0,
867.187500,8.00000000E+0,
869.140630,6.00000000E+0,
871.093750,3.00000000E+0,
873.046880,3.00000000E+0,
875.00,1.00000000E+1,
876.953130,3.00000000E+0,
878.906250,7.00000000E+0,
880.859380,6.00000000E+0,
882.812500,2.00000000E+0,
884.765630,6.00000000E+0,
886.718750,7.00000000E+0,
888.671880,2.00000000E+0,
890.62500,3.00000000E+0,
892.578130,6.00000000E+0,
894.531250,1.00000000E+0,
896.484380,6.00000000E+0,
898.437500,7.00000000E+0,
900.390630,5.00000000E+0,
902.343750,2.00000000E+0,
904.296880,6.00000000E+0,
906.2500,8.00000000E+0,
908.203130,5.00000000E+0,
910.156250,4.00000000E+0,
912.109380,3.00000000E+0,
914.062500,3.00000000E+0,
916.015630,2.00000000E+0,
917.968750,3.00000000E+0,
919.921880,8.00000000E+0,
921.87500,6.00000000E+0,
923.828130,5.00000000E+0,
925.781250,3.00000000E+0,
927.734380,5.00000000E+0,
929.687500,3.00000000E+0,
931.640630,5.00000000E+0,
933.593750,8.00000000E+0,
935.546880,5.00000000E+0,
937.500,8.00000000E+0,
939.453130,4.00000000E+0,
941.406250,3.00000000E+0,
943.359380,2.00000000E+0,
945.312500,1.20000000E+1,
947.265630,3.00000000E+0,
949.218750,6.00000000E+0,
951.171880,6.00000000E+0,
953.12500,9.00000000E+0,
955.078130,3.00000000E+0,
957.031250,4.00000000E+0,
958.984380,1.00000000E+0,
960.937500,5.00000000E+0,
962.890630,8.00000000E+0,
964.843750,7.00000000E+0,
966.796880,4.00000000E+0,
968.7500,8.00000000E+0,
970.703130,8.00000000E+0,
972.656250,5.00000000E+0,
974.609380,5.00000000E+0,
976.562500,5.00000000E+0,
978.515630,5.00000000E+0,
980.468750,7.00000000E+0,
982.421880,6.00000000E+0,
984.37500,7.00000000E+0,
986.328130,5.00000000E+0,
988.281250,3.00000000E+0,
990.234380,4.00000000E+0,
992.187500,5.00000000E+0,
994.140630,4.00000000E+0,
996.093750,1.20000000E+1,
998.046880,7.00000000E+0,
1000.00,6.00000000E+0,
1001.953100,5.00000000E+0,
1003.906300,6.00000000E+0,
1005.859400,4.00000000E+0,
1007.812500,3.00000000E+0,
1009.765600,6.00000000E+0,
1011.718800,6.00000000E+0,
1013.671900,2.00000000E+0,
1015.625000,4.00000000E+0,
1017.578100,4.00000000E+0,
1019.531300,3.00000000E+0,
1021.484400,4.00000000E+0,
1023.437500,2.00000000E+0,
1025.390600,3.00000000E+0,
1027.343800,7.00000000E+0,
1029.296900,8.00000000E+0,
1031.25000,6.00000000E+0,
1033.203100,3.00000000E+0,
1035.156300,3.00000000E+0,
1037.109400,8.00000000E+0,
1039.062500,3.00000000E+0,
1041.015600,2.00000000E+0,
1042.968800,6.00000000E+0,
1044.921900,6.00000000E+0,
1046.875000,6.00000000E+0,
1048.828100,3.00000000E+0,
1050.781300,7.00000000E+0,
1052.734400,5.00000000E+0,
1054.687500,7.00000000E+0,
1056.640600,7.00000000E+0,
1058.593800,3.00000000E+0,
1060.546900,2.00000000E+0,
1062.5000,6.00000000E+0,
1064.453100,7.00000000E+0,
1066.406300,1.00000000E+0,
1068.359400,5.00000000E+0,
1070.312500,1.10000000E+1,
1072.265600,5.00000000E+0,
1074.218800,5.00000000E+0,
1076.171900,8.00000000E+0,
1078.125000,5.00000000E+0,
1080.078100,5.00000000E+0,
1082.031300,9.00000000E+0,
1083.984400,8.00000000E+0,
1085.937500,4.00000000E+0,
1087.890600,8.00000000E+0,
1089.843800,2.00000000E+0,
1091.796900,6.00000000E+0,
1093.75000,4.00000000E+0,
1095.703100,2.00000000E+0,
1097.656300,4.00000000E+0,
1099.609400,4.00000000E+0,
1101.562500,3.00000000E+0,
1103.515600,4.00000000E+0,
1105.468800,6.00000000E+0,
1107.421900,8.00000000E+0,
1109.375000,5.00000000E+0,
1111.328100,2.00000000E+0,
1113.281300,1.00000000E+0,
1115.234400,1.00000000E+0,
1117.187500,7.00000000E+0,
1119.140600,2.00000000E+0,
1121.093800,2.00000000E+0,
1123.046900,3.00000000E+0,
1125.000,8.00000000E+0,
1126.953100,5.00000000E+0,
1128.906300,3.00000000E+0,
1130.859400,8.00000000E+0,
1132.812500,6.00000000E+0,
1134.765600,2.00000000E+0,
1136.718800,3.00000000E+0,
1138.671900,7.00000000E+0,
1140.625000,3.00000000E+0,
1142.578100,6.00000000E+0,
1144.531300,2.00000000E+0,
1146.484400,7.00000000E+0,
1148.437500,4.00000000E+0,
1150.390600,4.00000000E+0,
1152.343800,5.00000000E+0,
1154.296900,2.00000000E+0,
1156.25000,7.00000000E+0,
1158.203100,8.00000000E+0,
1160.156300,6.00000000E+0,
1162.109400,5.00000000E+0,
1164.062500,9.00000000E+0,
1166.015600,4.00000000E+0,
1167.968800,5.00000000E+0,
1169.921900,6.00000000E+0,
1171.875000,3.00000000E+0,
1173.828100,6.00000000E+0,
1175.781300,1.00000000E+0,
1177.734400,7.00000000E+0,
1179.687500,6.00000000E+0,
1181.640600,6.00000000E+0,
1183.593800,9.00000000E+0,
1185.546900,3.00000000E+0,
1187.5000,3.00000000E+0,
1189.453100,4.00000000E+0,
1191.406300,6.00000000E+0,
1193.359400,3.00000000E+0,
1195.312500,9.00000000E+0,
1197.265600,6.00000000E+0,
1199.218800,5.00000000E+0,
1201.171900,1.00000000E+0,
1203.125000,1.00000000E+0,
1205.078100,6.00000000E+0,
1207.031300,6.00000000E+0,
1208.984400,1.10000000E+1,
1210.937500,6.00000000E+0,
1212.890600,3.00000000E+0,
1214.843800,0.00000000E+0,
1216.796900,7.00000000E+0,
1218.75000,2.00000000E+0,
1220.703100,6.00000000E+0,
1222.656300,4.00000000E+0,
1224.609400,2.00000000E+0,
1226.562500,7.00000000E+0,
1228.515600,3.00000000E+0,
1230.468800,7.00000000E+0,
1232.421900,5.00000000E+0,
1234.375000,6.00000000E+0,
1236.328100,6.00000000E+0,
1238.281300,8.00000000E+0,
1240.234400,6.00000000E+0,
1242.187500,3.00000000E+0,
1244.140600,6.00000000E+0,
1246.093800,4.00000000E+0,
1248.046900,4.00000000E+0,
1250.00,5.00000000E+0,
1251.953100,4.00000000E+0,
1253.906300,3.00000000E+0,
1255.859400,6.00000000E+0,
1257.812500,8.00000000E+0,
1259.765600,4.00000000E+0,
1261.718800,4.00000000E+0,
1263.671900,3.00000000E+0,
1265.625000,6.00000000E+0,
1267.578100,3.00000000E+0,
1269.531300,6.00000000E+0,
1271.484400,5.00000000E+0,
1273.437500,4.00000000E+0,
1275.390600,3.00000000E+0,
1277.343800,9.00000000E+0,
1279.296900,9.00000000E+0,
1281.25000,6.00000000E+0,
1283.203100,2.00000000E+0,
1285.156300,6.00000000E+0,
1287.109400,4.00000000E+0,
1289.062500,7.00000000E+0,
1291.015600,6.00000000E+0,
1292.968800,5.00000000E+0,
1294.921900,6.00000000E+0,
1296.875000,7.00000000E+0,
1298.828100,7.00000000E+0,
1300.781300,3.00000000E+0,
1302.734400,2.00000000E+0,
1304.687500,6.00000000E+0,
1306.640600,0.00000000E+0,
1308.593800,8.00000000E+0,
1310.546900,6.00000000E+0,
1312.5000,3.00000000E+0,
1314.453100,6.00000000E+0,
1316.406300,4.00000000E+0,
1318.359400,4.00000000E+0,
1320.312500,8.00000000E+0,
1322.265600,3.00000000E+0,
1324.218800,4.00000000E+0,
1326.171900,4.00000000E+0,
1328.125000,8.00000000E+0,
1330.078100,4.00000000E+0,
1332.031300,1.00000000E+1,
1333.984400,3.00000000E+0,
1335.937500,3.00000000E+0,
1337.890600,4.00000000E+0,
1339.843800,4.00000000E+0,
1341.796900,6.00000000E+0,
1343.75000,3.00000000E+0,
1345.703100,3.00000000E+0,
1347.656300,4.00000000E+0,
1349.609400,7.00000000E+0,
1351.562500,5.00000000E+0,
1353.515600,6.00000000E+0,
1355.468800,4.00000000E+0,
1357.421900,3.00000000E+0,
1359.375000,6.00000000E+0,
1361.328100,6.00000000E+0,
1363.281300,4.00000000E+0,
1365.234400,9.00000000E+0,
1367.187500,0.00000000E+0,
1369.140600,4.00000000E+0,
1371.093800,5.00000000E+0,
1373.046900,5.00000000E+0,
1375.000,2.00000000E+0,
1376.953100,5.00000000E+0,
1378.906300,1.00000000E+0,
1380.859400,5.00000000E+0,
1382.812500,4.00000000E+0,
1384.765600,3.00000000E+0,
1386.718800,7.00000000E+0,
1388.671900,3.00000000E+0,
1390.625000,5.00000000E+0,
1392.578100,2.00000000E+0,
1394.531300,3.00000000E+0,
1396.484400,4.00000000E+0,
1398.437500,6.00000000E+0,
1400.390600,6.00000000E+0,
1402.343800,2.00000000E+0,
1404.296900,4.00000000E+0,
1406.25000,1.00000000E+0,
1408.203100,4.00000000E+0,
1410.156300,5.00000000E+0,
1412.109400,8.00000000E+0,
1414.062500,5.00000000E+0,
1416.015600,2.00000000E+0,
1417.968800,8.00000000E+0,
1419.921900,4.00000000E+0,
1421.875000,0.00000000E+0,
1423.828100,5.00000000E+0,
1425.781300,5.00000000E+0,
1427.734400,5.00000000E+0,
1429.687500,7.00000000E+0,
1431.640600,5.00000000E+0,
1433.593800,9.00000000E+0,
1435.546900,1.20000000E+1,
1437.5000,5.00000000E+0,
1439.453100,8.00000000E+0,
1441.406300,4.00000000E+0,
1443.359400,4.00000000E+0,
1445.312500,7.00000000E+0,
1447.265600,4.00000000E+0,
1449.218800,8.00000000E+0,
1451.171900,4.00000000E+0,
1453.125000,1.00000000E+0,
1455.078100,5.00000000E+0,
1457.031300,4.00000000E+0,
1458.984400,5.00000000E+0,
1460.937500,5.00000000E+0,
1462.890600,4.00000000E+0,
1464.843800,4.00000000E+0,
1466.796900,3.00000000E+0,
1468.75000,3.00000000E+0,
1470.703100,5.00000000E+0,
1472.656300,1.00000000E+1,
1474.609400,5.00000000E+0,
1476.562500,4.00000000E+0,
1478.515600,5.00000000E+0,
1480.468800,1.00000000E+0,
1482.421900,4.00000000E+0,
1484.375000,4.00000000E+0,
1486.328100,5.00000000E+0,
1488.281300,4.00000000E+0,
1490.234400,7.00000000E+0,
1492.187500,2.00000000E+0,
1494.140600,5.00000000E+0,
1496.093800,6.00000000E+0,
1498.046900,4.00000000E+0,
1500.00,4.00000000E+0,
1501.953100,7.00000000E+0,
1503.906300,4.00000000E+0,
1505.859400,1.20000000E+1,
1507.812500,3.00000000E+0,
1509.765600,6.00000000E+0,
1511.718800,3.00000000E+0,
1513.671900,3.00000000E+0,
1515.625000,2.00000000E+0,
1517.578100,9.00000000E+0,
1519.531300,3.00000000E+0,
1521.484400,8.00000000E+0,
1523.437500,9.00000000E+0,
1525.390600,6.00000000E+0,
1527.343800,7.00000000E+0,
1529.296900,5.00000000E+0,
1531.25000,1.00000000E+0,
1533.203100,6.00000000E+0,
1535.156300,4.00000000E+0,
1537.109400,9.00000000E+0,
1539.062500,5.00000000E+0,
1541.015600,5.00000000E+0,
1542.968800,6.00000000E+0,
1544.921900,6.00000000E+0,
1546.875000,3.00000000E+0,
1548.828100,6.00000000E+0,
1550.781300,2.00000000E+0,
1552.734400,9.00000000E+0,
1554.687500,6.00000000E+0,
1556.640600,3.00000000E+0,
1558.593800,5.00000000E+0,
1560.546900,6.00000000E+0,
1562.5000,3.00000000E+0,
1564.453100,3.00000000E+0,
1566.406300,4.00000000E+0,
1568.359400,5.00000000E+0,
1570.312500,2.00000000E+0,
1572.265600,4.00000000E+0,
1574.218800,2.00000000E+0,
1576.171900,1.10000000E+1,
1578.125000,8.00000000E+0,
1580.078100,4.00000000E+0,
1582.031300,1.10000000E+1,
1583.984400,4.00000000E+0,
1585.937500,3.00000000E+0,
1587.890600,3.00000000E+0,
1589.843800,4.00000000E+0,
1591.796900,4.00000000E+0,
1593.75000,3.00000000E+0,
1595.703100,4.00000000E+0,
1597.656300,2.00000000E+0,
1599.609400,4.00000000E+0,
1601.562500,3.00000000E+0,
1603.515600,3.00000000E+0,
1605.468800,6.00000000E+0,
1607.421900,4.00000000E+0,
1609.375000,6.00000000E+0,
1611.328100,3.00000000E+0,
1613.281300,2.00000000E+0,
1615.234400,3.00000000E+0,
1617.187500,1.00000000E+0,
1619.140600,5.00000000E+0,
1621.093800,6.00000000E+0,
1623.046900,6.00000000E+0,
1625.000,5.00000000E+0,
1626.953100,4.00000000E+0,
1628.906300,5.00000000E+0,
1630.859400,6.00000000E+0,
1632.812500,6.00000000E+0,
1634.765600,6.00000000E+0,
1636.718800,5.00000000E+0,
1638.671900,3.00000000E+0,
1640.625000,3.00000000E+0,
1642.578100,3.00000000E+0,
1644.531300,7.00000000E+0,
1646.484400,6.00000000E+0,
1648.437500,5.00000000E+0,
1650.390600,5.00000000E+0,
1652.343800,3.00000000E+0,
1654.296900,3.00000000E+0,
1656.25000,4.00000000E+0,
1658.203100,6.00000000E+0,
1660.156300,4.00000000E+0,
1662.109400,3.00000000E+0,
1664.062500,5.00000000E+0,
1666.015600,6.00000000E+0,
1667.968800,4.00000000E+0,
1669.921900,1.10000000E+1,
1671.875000,7.00000000E+0,
1673.828100,3.00000000E+0,
1675.781300,7.00000000E+0,
1677.734400,9.00000000E+0,
1679.687500,5.00000000E+0,
1681.640600,5.00000000E+0,
1683.593800,6.00000000E+0,
1685.546900,5.00000000E+0,
1687.5000,5.00000000E+0,
1689.453100,6.00000000E+0,
1691.406300,4.00000000E+0,
1693.359400,5.00000000E+0,
1695.312500,3.00000000E+0,
1697.265600,4.00000000E+0,
1699.218800,5.00000000E+0,
1701.171900,6.00000000E+0,
1703.125000,4.00000000E+0,
1705.078100,6.00000000E+0,
1707.031300,1.10000000E+1,
1708.984400,5.00000000E+0,
1710.937500,4.00000000E+0,
1712.890600,3.00000000E+0,
1714.843800,4.00000000E+0,
1716.796900,4.00000000E+0,
1718.75000,4.00000000E+0,
1720.703100,7.00000000E+0,
1722.656300,4.00000000E+0,
1724.609400,5.00000000E+0,
1726.562500,2.00000000E+0,
1728.515600,5.00000000E+0,
1730.468800,3.00000000E+0,
1732.421900,7.00000000E+0,
1734.375000,6.00000000E+0,
1736.328100,1.00000000E+0,
1738.281300,2.00000000E+0,
1740.234400,7.00000000E+0,
1742.187500,6.00000000E+0,
1744.140600,1.00000000E+0,
1746.093800,2.00000000E+0,
1748.046900,5.00000000E+0,
1750.00,6.00000000E+0,
1751.953100,3.00000000E+0,
1753.906300,4.00000000E+0,
1755.859400,5.00000000E+0,
1757.812500,7.00000000E+0,
1759.765600,5.00000000E+0,
1761.718800,4.00000000E+0,
1763.671900,4.00000000E+0,
1765.625000,9.00000000E+0,
1767.578100,6.00000000E+0,
1769.531300,4.00000000E+0,
1771.484400,4.00000000E+0,
1773.437500,3.00000000E+0,
1775.390600,3.00000000E+0,
1777.343800,9.00000000E+0,
1779.296900,4.00000000E+0,
1781.25000,2.00000000E+0,
1783.203100,3.00000000E+0,
1785.156300,8.00000000E+0,
1787.109400,4.00000000E+0,
1789.062500,6.00000000E+0,
1791.015600,4.00000000E+0,
1792.968800,6.00000000E+0,
1794.921900,0.00000000E+0,
1796.875000,1.00000000E+1,
1798.828100,9.00000000E+0,
1800.781300,5.00000000E+0,
1802.734400,4.00000000E+0,
1804.687500,1.00000000E+0,
1806.640600,3.00000000E+0,
1808.593800,2.00000000E+0,
1810.546900,6.00000000E+0,
1812.5000,7.00000000E+0,
1814.453100,4.00000000E+0,
1816.406300,2.00000000E+0,
1818.359400,4.00000000E+0,
1820.312500,6.00000000E+0,
1822.265600,3.00000000E+0,
1824.218800,4.00000000E+0,
1826.171900,6.00000000E+0,
1828.125000,5.00000000E+0,
1830.078100,6.00000000E+0,
1832.031300,8.00000000E+0,
1833.984400,6.00000000E+0,
1835.937500,7.00000000E+0,
1837.890600,6.00000000E+0,
1839.843800,4.00000000E+0,
1841.796900,3.00000000E+0,
1843.75000,4.00000000E+0,
1845.703100,6.00000000E+0,
1847.656300,2.00000000E+0,
1849.609400,1.00000000E+0,
1851.562500,2.00000000E+0,
1853.515600,2.00000000E+0,
1855.468800,5.00000000E+0,
1857.421900,8.00000000E+0,
1859.375000,5.00000000E+0,
1861.328100,5.00000000E+0,
1863.281300,4.00000000E+0,
1865.234400,3.00000000E+0,
1867.187500,8.00000000E+0,
1869.140600,4.00000000E+0,
1871.093800,5.00000000E+0,
1873.046900,4.00000000E+0,
1875.000,6.00000000E+0,
1876.953100,6.00000000E+0,
1878.906300,4.00000000E+0,
1880.859400,3.00000000E+0,
1882.812500,3.00000000E+0,
1884.765600,9.00000000E+0,
1886.718800,5.00000000E+0,
1888.671900,3.00000000E+0,
1890.625000,5.00000000E+0,
1892.578100,3.00000000E+0,
1894.531300,3.00000000E+0,
1896.484400,5.00000000E+0,
1898.437500,4.00000000E+0,
1900.390600,7.00000000E+0,
1902.343800,0.00000000E+0,
1904.296900,4.00000000E+0,
1906.25000,3.00000000E+0,
1908.203100,3.00000000E+0,
1910.156300,5.00000000E+0,
1912.109400,9.00000000E+0,
1914.062500,3.00000000E+0,
1916.015600,0.00000000E+0,
1917.968800,4.00000000E+0,
1919.921900,2.00000000E+0,
1921.875000,4.00000000E+0,
1923.828100,4.00000000E+0,
1925.781300,8.00000000E+0,
1927.734400,6.00000000E+0,
1929.687500,0.00000000E+0,
1931.640600,5.00000000E+0,
1933.593800,2.00000000E+0,
1935.546900,9.00000000E+0,
1937.5000,1.00000000E+0,
1939.453100,3.00000000E+0,
1941.406300,6.00000000E+0,
1943.359400,4.00000000E+0,
1945.312500,9.00000000E+0,
1947.265600,4.00000000E+0,
1949.218800,4.00000000E+0,
1951.171900,4.00000000E+0,
1953.125000,6.00000000E+0,
1955.078100,5.00000000E+0,
1957.031300,8.00000000E+0,
1958.984400,3.00000000E+0,
1960.937500,5.00000000E+0,
1962.890600,1.00000000E+0,
1964.843800,4.00000000E+0,
1966.796900,6.00000000E+0,
1968.75000,6.00000000E+0,
1970.703100,5.00000000E+0,
1972.656300,1.00000000E+0,
1974.609400,0.00000000E+0,
1976.562500,5.00000000E+0,
1978.515600,1.20000000E+1,
1980.468800,5.00000000E+0,
1982.421900,4.00000000E+0,
1984.375000,6.00000000E+0,
1986.328100,4.00000000E+0,
1988.281300,3.00000000E+0,
1990.234400,7.00000000E+0,
1992.187500,6.00000000E+0,
1994.140600,6.00000000E+0,
1996.093800,6.00000000E+0,
1998.046900,2.00000000E+0,
